H Photon Cross Section
80
***** Atomic Weight of H
1.008
***** Atomic Number of H
1
***** Averaged Excitation Potential of H [keV]
0.019
Energy(keV)*Photo(barn)*Comp(barn)**Cohe(barn)**Pair(barn)
1.000000e+00	1.141000e+01	8.424000e-02	5.805000e-01	0.000000e+00
1.500000e+00	2.932000e+00	1.650000e-01	4.985000e-01	0.000000e+00
2.000000e+00	1.111000e+00	2.478000e-01	4.141000e-01	0.000000e+00
3.000000e+00	2.806000e-01	3.822000e-01	2.764000e-01	0.000000e+00
4.000000e+00	1.053000e-01	4.675000e-01	1.881000e-01	0.000000e+00
5.000000e+00	4.907000e-02	5.187000e-01	1.341000e-01	0.000000e+00
6.000000e+00	2.627000e-02	5.503000e-01	9.988000e-02	0.000000e+00
8.000000e+00	9.816000e-03	5.840000e-01	6.126000e-02	0.000000e+00
1.000000e+01	4.558000e-03	5.993000e-01	4.121000e-02	0.000000e+00
1.500000e+01	1.128000e-03	6.095000e-01	1.943000e-02	0.000000e+00
2.000000e+01	4.182000e-04	6.068000e-01	1.119000e-02	0.000000e+00
3.000000e+01	1.032000e-04	5.924000e-01	5.062000e-03	0.000000e+00
4.000000e+01	3.823000e-05	5.759000e-01	2.866000e-03	0.000000e+00
5.000000e+01	1.771000e-05	5.597000e-01	1.840000e-03	0.000000e+00
6.000000e+01	9.455000e-06	5.444000e-01	1.280000e-03	0.000000e+00
8.000000e+01	3.523000e-06	5.166000e-01	7.211000e-04	0.000000e+00
1.000000e+02	1.644000e-06	4.923000e-01	4.619000e-04	0.000000e+00
1.500000e+02	4.176000e-07	4.435000e-01	2.055000e-04	0.000000e+00
2.000000e+02	1.611000e-07	4.064000e-01	1.156000e-04	0.000000e+00
3.000000e+02	4.414000e-08	3.535000e-01	5.139000e-05	0.000000e+00
4.000000e+02	1.858000e-08	3.168000e-01	2.891000e-05	0.000000e+00
5.000000e+02	9.927000e-09	2.893000e-01	1.850000e-05	0.000000e+00
6.000000e+02	6.158000e-09	2.676000e-01	1.285000e-05	0.000000e+00
8.000000e+02	3.118000e-09	2.351000e-01	7.227000e-06	0.000000e+00
1.000000e+03	1.961000e-09	2.114000e-01	4.625000e-06	0.000000e+00
1.022000e+03	1.880000e-09	2.092000e-01	4.428000e-06	0.000000e+00
1.250000e+03	1.304000e-09	1.890000e-01	2.960000e-06	7.805000e-06
1.500000e+03	9.732000e-10	1.718000e-01	2.056000e-06	4.385000e-05
2.000000e+03	6.201000e-10	1.466000e-01	1.156000e-06	1.758000e-04
2.044000e+03	6.004000e-10	1.448000e-01	1.107000e-06	1.895000e-04
3.000000e+03	3.524000e-10	1.153000e-01	5.139000e-07	5.451500e-04
4.000000e+03	2.444000e-10	9.620000e-02	2.891000e-07	9.849000e-04
5.000000e+03	1.866000e-10	8.308000e-02	1.850000e-07	1.430300e-03
6.000000e+03	1.508000e-10	7.343000e-02	1.285000e-07	1.859200e-03
7.000000e+03	1.264000e-10	6.600000e-02	9.439000e-08	2.259800e-03
8.000000e+03	1.088000e-10	6.007000e-02	7.227000e-08	2.634300e-03
9.000000e+03	9.546000e-11	5.522000e-02	5.710000e-08	2.984000e-03
1.000000e+04	8.503000e-11	5.116000e-02	4.625000e-08	3.308000e-03
1.100000e+04	7.665000e-11	4.772000e-02	3.823000e-08	3.610000e-03
1.200000e+04	6.977000e-11	4.475000e-02	3.212000e-08	3.891000e-03
1.300000e+04	6.401000e-11	4.216000e-02	2.737000e-08	4.155000e-03
1.400000e+04	5.914000e-11	3.988000e-02	2.360000e-08	4.404000e-03
1.500000e+04	5.495000e-11	3.786000e-02	2.056000e-08	4.639000e-03
1.600000e+04	5.131000e-11	3.606000e-02	1.807000e-08	4.863000e-03
1.800000e+04	4.531000e-11	3.296000e-02	1.428000e-08	5.276000e-03
2.000000e+04	4.057000e-11	3.039000e-02	1.156000e-08	5.651000e-03
2.200000e+04	3.672000e-11	2.823000e-02	9.556000e-09	5.996000e-03
2.400000e+04	3.354000e-11	2.638000e-02	8.030000e-09	6.314000e-03
2.600000e+04	3.087000e-11	2.477000e-02	6.842000e-09	6.609000e-03
2.800000e+04	2.859000e-11	2.336000e-02	5.899000e-09	6.884000e-03
3.000000e+04	2.662000e-11	2.212000e-02	5.139000e-09	7.141000e-03
4.000000e+04	1.981000e-11	1.758000e-02	2.890000e-09	8.225000e-03
5.000000e+04	1.577000e-11	1.468000e-02	1.850000e-09	9.075000e-03
6.000000e+04	1.310000e-11	1.264000e-02	1.284000e-09	9.771000e-03
8.000000e+04	9.787000e-12	9.972000e-03	7.222000e-10	1.086700e-02
1.000000e+05	7.811000e-12	8.276000e-03	4.620000e-10	1.170900e-02
1.500000e+05	5.191000e-12	5.894000e-03	2.054000e-10	1.319300e-02
2.000000e+05	3.887000e-12	4.621000e-03	1.155000e-10	1.419000e-02
3.000000e+05	2.587000e-12	3.275000e-03	5.134000e-11	1.548400e-02
4.000000e+05	1.939000e-12	2.565000e-03	2.888000e-11	1.630200e-02
5.000000e+05	1.550000e-12	2.123000e-03	1.848000e-11	1.687500e-02
6.000000e+05	1.291000e-12	1.818000e-03	1.283000e-11	1.730200e-02
8.000000e+05	9.682000e-13	1.420000e-03	7.219000e-12	1.790300e-02
1.000000e+06	7.744000e-13	1.168000e-03	4.620000e-12	1.830900e-02
1.500000e+06	5.161000e-13	8.159000e-04	2.054000e-12	1.892300e-02
2.000000e+06	3.870000e-13	6.314000e-04	1.155000e-12	1.927300e-02
3.000000e+06	2.580000e-13	4.390000e-04	5.134000e-13	1.965700e-02
4.000000e+06	1.934000e-13	3.389000e-04	2.888000e-13	1.988300e-02
5.000000e+06	1.548000e-13	2.771000e-04	1.848000e-13	2.002700e-02
6.000000e+06	1.290000e-13	2.350000e-04	1.283000e-13	2.012800e-02
8.000000e+06	9.671000e-14	1.810000e-04	7.219000e-14	2.025900e-02
1.000000e+07	7.737000e-14	1.478000e-04	4.620000e-14	2.034500e-02
1.500000e+07	5.158000e-14	1.021000e-04	2.054000e-14	2.045900e-02
2.000000e+07	3.868000e-14	7.853000e-05	1.155000e-14	2.051900e-02
3.000000e+07	2.579000e-14	5.416000e-05	5.134000e-15	2.058700e-02
4.000000e+07	1.934000e-14	4.158000e-05	2.888000e-15	2.063100e-02
5.000000e+07	1.547000e-14	3.386000e-05	1.848000e-15	2.064800e-02
6.000000e+07	1.289000e-14	2.862000e-05	1.283000e-15	2.067200e-02
8.000000e+07	9.670000e-15	2.195000e-05	7.219000e-16	2.068700e-02
1.000000e+08	7.736000e-15	1.785000e-05	4.620000e-16	2.070100e-02
