Li Photon Cross Section
80
***** Atomic Weight of Li
6.941
***** Atomic Number of Li
3
***** Averaged Excitation Potential of Li [keV]
0.040
Energy(keV)*Photo(barn)*Comp(barn)**Cohe(barn)**Pair(barn)
1.000000e+00	2.690000e+03	3.549000e-01	4.734000e+00	0.000000e+00
1.500000e+00	7.641000e+02	5.273000e-01	3.941000e+00	0.000000e+00
2.000000e+00	3.080000e+02	6.378000e-01	3.366000e+00	0.000000e+00
3.000000e+00	8.354000e+01	7.970000e-01	2.669000e+00	0.000000e+00
4.000000e+00	3.273000e+01	9.361000e-01	2.231000e+00	0.000000e+00
5.000000e+00	1.571000e+01	1.063000e+00	1.889000e+00	0.000000e+00
6.000000e+00	8.604000e+00	1.177000e+00	1.602000e+00	0.000000e+00
8.000000e+00	3.305000e+00	1.357000e+00	1.163000e+00	0.000000e+00
1.000000e+01	1.568000e+00	1.483000e+00	8.627000e-01	0.000000e+00
1.500000e+01	4.009000e-01	1.644000e+00	4.626000e-01	0.000000e+00
2.000000e+01	1.516000e-01	1.702000e+00	2.851000e-01	0.000000e+00
3.000000e+01	3.841000e-02	1.718000e+00	1.382000e-01	0.000000e+00
4.000000e+01	1.445000e-02	1.692000e+00	8.075000e-02	0.000000e+00
5.000000e+01	6.770000e-03	1.656000e+00	5.270000e-02	0.000000e+00
6.000000e+01	3.645000e-03	1.617000e+00	3.701000e-02	0.000000e+00
8.000000e+01	1.373000e-03	1.540000e+00	2.106000e-02	0.000000e+00
1.000000e+02	6.464000e-04	1.471000e+00	1.356000e-02	0.000000e+00
1.500000e+02	1.666000e-04	1.328000e+00	6.059000e-03	0.000000e+00
2.000000e+02	6.481000e-05	1.218000e+00	3.415000e-03	0.000000e+00
3.000000e+02	1.796000e-05	1.060000e+00	1.520000e-03	0.000000e+00
4.000000e+02	7.615000e-06	9.499000e-01	8.553000e-04	0.000000e+00
5.000000e+02	4.081000e-06	8.676000e-01	5.475000e-04	0.000000e+00
6.000000e+02	2.533000e-06	8.027000e-01	3.803000e-04	0.000000e+00
8.000000e+02	1.276000e-06	7.053000e-01	2.139000e-04	0.000000e+00
1.000000e+03	7.939000e-07	6.341000e-01	1.369000e-04	0.000000e+00
1.022000e+03	7.038000e-07	6.274000e-01	1.311000e-04	0.000000e+00
1.250000e+03	4.788000e-07	5.670000e-01	8.764000e-05	7.052000e-05
1.500000e+03	3.486000e-07	5.154000e-01	6.086000e-05	3.953000e-04
2.000000e+03	2.212000e-07	4.398000e-01	3.423000e-05	1.583000e-03
2.044000e+03	2.141000e-07	4.344000e-01	3.278000e-05	1.707000e-03
3.000000e+03	1.250000e-07	3.460000e-01	1.521000e-05	4.666000e-03
4.000000e+03	8.643000e-08	2.886000e-01	8.559000e-06	7.877200e-03
5.000000e+03	6.586000e-08	2.492000e-01	5.478000e-06	1.089880e-02
6.000000e+03	5.313000e-08	2.203000e-01	3.804000e-06	1.370300e-02
7.000000e+03	4.450000e-08	1.980000e-01	2.795000e-06	1.625900e-02
8.000000e+03	3.826000e-08	1.802000e-01	2.140000e-06	1.861100e-02
9.000000e+03	3.355000e-08	1.656000e-01	1.691000e-06	2.076200e-02
1.000000e+04	2.987000e-08	1.535000e-01	1.369000e-06	2.274900e-02
1.100000e+04	2.691000e-08	1.431000e-01	1.132000e-06	2.457300e-02
1.200000e+04	2.448000e-08	1.342000e-01	9.510000e-07	2.626300e-02
1.300000e+04	2.246000e-08	1.265000e-01	8.103000e-07	2.784900e-02
1.400000e+04	2.074000e-08	1.196000e-01	6.987000e-07	2.932800e-02
1.500000e+04	1.927000e-08	1.136000e-01	6.086000e-07	3.071800e-02
1.600000e+04	1.799000e-08	1.082000e-01	5.349000e-07	3.204200e-02
1.800000e+04	1.588000e-08	9.887000e-02	4.227000e-07	3.447100e-02
2.000000e+04	1.421000e-08	9.117000e-02	3.424000e-07	3.666700e-02
2.200000e+04	1.286000e-08	8.468000e-02	2.829000e-07	3.867800e-02
2.400000e+04	1.175000e-08	7.913000e-02	2.377000e-07	4.051800e-02
2.600000e+04	1.081000e-08	7.430000e-02	2.026000e-07	4.222400e-02
2.800000e+04	1.001000e-08	7.009000e-02	1.747000e-07	4.379900e-02
3.000000e+04	9.319000e-09	6.637000e-02	1.522000e-07	4.527700e-02
4.000000e+04	6.931000e-09	5.274000e-02	8.558000e-08	5.139000e-02
5.000000e+04	5.517000e-09	4.403000e-02	5.477000e-08	5.605000e-02
6.000000e+04	4.582000e-09	3.793000e-02	3.804000e-08	5.982000e-02
8.000000e+04	3.422000e-09	2.992000e-02	2.139000e-08	6.562000e-02
1.000000e+05	2.730000e-09	2.483000e-02	1.369000e-08	6.985000e-02
1.500000e+05	1.814000e-09	1.768000e-02	6.084000e-09	7.693000e-02
2.000000e+05	1.358000e-09	1.386000e-02	3.422000e-09	8.142000e-02
3.000000e+05	9.039000e-10	9.826000e-03	1.521000e-09	8.703000e-02
4.000000e+05	6.774000e-10	7.696000e-03	8.556000e-10	9.046000e-02
5.000000e+05	5.416000e-10	6.370000e-03	5.476000e-10	9.284000e-02
6.000000e+05	4.512000e-10	5.454000e-03	3.803000e-10	9.459000e-02
8.000000e+05	3.383000e-10	4.260000e-03	2.139000e-10	9.704000e-02
1.000000e+06	2.705000e-10	3.505000e-03	1.369000e-10	9.869000e-02
1.500000e+06	1.803000e-10	2.448000e-03	6.084000e-11	1.011700e-01
2.000000e+06	1.352000e-10	1.894000e-03	3.422000e-11	1.026000e-01
3.000000e+06	9.012000e-11	1.317000e-03	1.521000e-11	1.041900e-01
4.000000e+06	6.758000e-11	1.017000e-03	8.556000e-12	1.050800e-01
5.000000e+06	5.406000e-11	8.313000e-04	5.476000e-12	1.056500e-01
6.000000e+06	4.505000e-11	7.049000e-04	3.803000e-12	1.060600e-01
8.000000e+06	3.379000e-11	5.431000e-04	2.139000e-12	1.065900e-01
1.000000e+07	2.703000e-11	4.434000e-04	1.369000e-12	1.069300e-01
1.500000e+07	1.802000e-11	3.064000e-04	6.084000e-13	1.074100e-01
2.000000e+07	1.351000e-11	2.356000e-04	3.422000e-13	1.076800e-01
3.000000e+07	9.009000e-12	1.625000e-04	1.521000e-13	1.079500e-01
4.000000e+07	6.757000e-12	1.247000e-04	8.556000e-14	1.081000e-01
5.000000e+07	5.405000e-12	1.016000e-04	5.476000e-14	1.082000e-01
6.000000e+07	4.504000e-12	8.586000e-05	3.803000e-14	1.082700e-01
8.000000e+07	3.378000e-12	6.584000e-05	2.139000e-14	1.083400e-01
1.000000e+08	2.703000e-12	5.356000e-05	1.369000e-14	1.083900e-01
